Distance (Å)  Energy (eV)  Force (eV/Å)
0.10 0.499972 2.226047
0.11 0.482901 1.228176
0.12 0.474749 0.429028
0.13 0.473891 -0.240414
0.14 0.479289 -0.828897
0.15 0.490310 -1.369306
0.16 0.506585 -1.882346
0.17 0.527905 -2.379585
0.18 0.554141 -2.865925
0.19 0.585188 -3.341588
0.20 0.620928 -3.803690
0.21 0.661201 -4.247470
0.22 0.705797 -4.667239
0.23 0.754446 -5.057084
0.24 0.806820 -5.411387
0.25 0.862538 -5.725180
0.26 0.921175 -5.994383
0.27 0.982267 -6.215928
0.28 1.045328 -6.387817
0.29 1.109855 -6.509109
0.30 1.175341 -6.579867
0.31 1.241287 -6.601074
0.32 1.307204 -6.574524
0.33 1.372626 -6.502701
0.34 1.437117 -6.388658
0.35 1.500270 -6.235893
0.36 1.561718 -6.048230
0.37 1.621132 -5.829709
0.38 1.678224 -5.584491
0.39 1.732747 -5.316766
0.40 1.784498 -5.030683
0.41 1.833313 -4.730285
0.42 1.879069 -4.419460
0.43 1.921680 -4.101903
0.44 1.961096 -3.781082
0.45 1.997301 -3.460222
0.46 2.030310 -3.142285
0.47 2.060166 -2.829971
0.48 2.086936 -2.525706
0.49 2.110714 -2.231651
0.50 2.131610 -1.949702
0.51 2.149754 -1.681500
0.52 2.165290 -1.428438
0.53 2.178377 -1.191672
0.54 2.189181 -0.972132
0.55 2.197879 -0.770531
0.56 2.204653 -0.587380
0.57 2.209690 -0.422999
0.58 2.213176 -0.277529
0.59 2.215303 -0.150940
0.60 2.216258 -0.043050
0.61 2.216225 0.046470
0.62 2.215388 0.118082
0.63 2.213921 0.172367
0.64 2.211996 0.210017
0.65 2.209774 0.231823
0.66 2.207409 0.238662
0.67 2.205047 0.231488
0.68 2.202823 0.211318
0.69 2.200861 0.179225
0.70 2.199275 0.136324
0.71 2.198167 0.083762
0.72 2.197628 0.022708
0.73 2.197737 -0.045657
0.74 2.198561 -0.120149
0.75 2.200156 -0.199590
0.76 2.202566 -0.282820
0.77 2.205821 -0.368702
0.78 2.209945 -0.456130
0.79 2.214946 -0.544036
0.80 2.220824 -0.631398
0.81 2.227569 -0.717246
0.82 2.235160 -0.800663
0.83 2.243571 -0.880795
0.84 2.252763 -0.956849
0.85 2.262692 -1.028101
0.86 2.273307 -1.093894
0.87 2.284550 -1.153643
0.88 2.296358 -1.206834
0.89 2.308663 -1.253024
0.90 2.321393 -1.291839
0.91 2.334474 -1.322980
0.92 2.347827 -1.346211
0.93 2.361371 -1.361367
0.94 2.375027 -1.368345
0.95 2.388711 -1.367103
0.96 2.402341 -1.357659
0.97 2.415837 -1.340085
0.98 2.429116 -1.314505
0.99 2.442101 -1.281091
1.00 2.454713 -1.240058
1.01 2.466877 -1.191661
1.02 2.478523 -1.136192
1.03 2.489579 -1.073974
1.04 2.499981 -1.005359
1.05 2.509666 -0.930723
1.06 2.518576 -0.850462
1.07 2.526658 -0.764989
1.08 2.533860 -0.674732
1.09 2.540138 -0.580127
1.10 2.545450 -0.481617
1.11 2.549759 -0.379651
1.12 2.553033 -0.274678
1.13 2.555244 -0.167144
1.14 2.556369 -0.057495
1.15 2.556388 0.053834
1.16 2.555288 0.166413
1.17 2.553057 0.279822
1.18 2.549690 0.393653
1.19 2.545184 0.507512
1.20 2.539541 0.621019
1.21 2.532766 0.733810
1.22 2.524868 0.845536
1.23 2.515860 0.955868
1.24 2.505756 1.064494
1.25 2.494577 1.171121
1.26 2.482342 1.275474
1.27 2.469076 1.377301
1.28 2.454805 1.476367
1.29 2.439558 1.572459
1.30 2.423366 1.665382
1.31 2.406262 1.754964
1.32 2.388279 1.841049
1.33 2.369453 1.923505
1.34 2.349821 2.002216
1.35 2.329421 2.077086
1.36 2.308292 2.148038
1.37 2.286474 2.215012
1.38 2.264005 2.277966
1.39 2.240928 2.336875
1.40 2.217282 2.391729
1.41 2.193107 2.442533
1.42 2.168444 2.489307
1.43 2.143334 2.532085
1.44 2.117816 2.570913
1.45 2.091929 2.605850
1.46 2.065711 2.636965
1.47 2.039202 2.664336
1.48 2.012437 2.688053
1.49 1.985453 2.708212
1.50 1.958284 2.724917
1.51 1.930966 2.738278
1.52 1.903529 2.748413
1.53 1.876008 2.755441
1.54 1.848431 2.759487
1.55 1.820827 2.760679
1.56 1.793226 2.759148
1.57 1.765653 2.755024
1.58 1.738134 2.748441
1.59 1.710692 2.739531
1.60 1.683350 2.728427
1.61 1.656130 2.715259
1.62 1.629052 2.700157
1.63 1.602133 2.683250
1.64 1.575392 2.664661
1.65 1.548845 2.644515
1.66 1.522507 2.622928
1.67 1.496391 2.600019
1.68 1.470510 2.575896
1.69 1.444877 2.550670
1.70 1.419500 2.524443
1.71 1.394391 2.497314
1.72 1.369557 2.469378
1.73 1.345006 2.440725
1.74 1.320744 2.411441
1.75 1.296779 2.381607
1.76 1.273114 2.351299
1.77 1.249754 2.320590
1.78 1.226703 2.289547
1.79 1.203964 2.258233
1.80 1.181539 2.226707
1.81 1.159430 2.195025
1.82 1.137639 2.163236
1.83 1.116166 2.131389
1.84 1.095011 2.099527
1.85 1.074175 2.067688
1.86 1.053657 2.035911
1.87 1.033457 2.004228
1.88 1.013572 1.972670
1.89 0.994003 1.941265
1.90 0.974747 1.910036
1.91 0.955801 1.879007
1.92 0.937166 1.848197
1.93 0.918837 1.817625
1.94 0.900812 1.787306
1.95 0.883090 1.757255
1.96 0.865666 1.727483
1.97 0.848539 1.698001
1.98 0.831705 1.668819
1.99 0.815162 1.639945
2.00 0.798905 1.611385
2.01 0.782933 1.583145
2.02 0.767241 1.555230
2.03 0.751827 1.527643
2.04 0.736687 1.500388
2.05 0.721818 1.473467
2.06 0.707217 1.446881
2.07 0.692880 1.420632
2.08 0.678803 1.394720
2.09 0.664984 1.369146
2.10 0.651419 1.343909
2.11 0.638105 1.319008
2.12 0.625038 1.294443
2.13 0.612215 1.270212
2.14 0.599632 1.246314
2.15 0.587287 1.222748
2.16 0.575176 1.199512
2.17 0.563296 1.176603
2.18 0.551643 1.154021
2.19 0.540215 1.131762
2.20 0.529007 1.109825
2.21 0.518017 1.088207
2.22 0.507242 1.066906
2.23 0.496678 1.045919
2.24 0.486322 1.025245
2.25 0.476172 1.004881
2.26 0.466224 0.984824
2.27 0.456474 0.965072
2.28 0.446921 0.945623
2.29 0.437561 0.926474
2.30 0.428391 0.907622
2.31 0.419408 0.889066
2.32 0.410608 0.870802
2.33 0.401991 0.852830
2.34 0.393551 0.835145
2.35 0.385287 0.817747
2.36 0.377195 0.800632
2.37 0.369273 0.783798
2.38 0.361518 0.767243
2.39 0.353927 0.750966
2.40 0.346498 0.734963
2.41 0.339227 0.719232
2.42 0.332112 0.703772
2.43 0.325151 0.688580
2.44 0.318340 0.673654
2.45 0.311677 0.658992
2.46 0.305159 0.644592
2.47 0.298784 0.630452
2.48 0.292549 0.616569
2.49 0.286452 0.602943
2.50 0.280490 0.589570
2.51 0.274660 0.576448
2.52 0.268960 0.563576
2.53 0.263387 0.550951
2.54 0.257940 0.538571
2.55 0.252615 0.526435
2.56 0.247410 0.514539
2.57 0.242324 0.502882
2.58 0.237352 0.491462
2.59 0.232494 0.480276
2.60 0.227746 0.469321
2.61 0.223106 0.458597
2.62 0.218573 0.448099
2.63 0.214144 0.437826
2.64 0.209816 0.427775
2.65 0.205587 0.417944
2.66 0.201456 0.408330
2.67 0.197420 0.398931
2.68 0.193477 0.389743
2.69 0.189624 0.380764
2.70 0.185861 0.371991
2.71 0.182184 0.363422
2.72 0.178592 0.355053
2.73 0.175082 0.346881
2.74 0.171654 0.338904
2.75 0.168304 0.331118
2.76 0.165031 0.323520
2.77 0.161833 0.316108
2.78 0.158708 0.308877
2.79 0.155654 0.301825
2.80 0.152671 0.294949
2.81 0.149755 0.288245
2.82 0.146905 0.281710
2.83 0.144120 0.275340
2.84 0.141398 0.269133
2.85 0.138737 0.263085
2.86 0.136136 0.257193
2.87 0.133593 0.251454
2.88 0.131106 0.245864
2.89 0.128675 0.240420
2.90 0.126297 0.235118
2.91 0.123972 0.229956
2.92 0.121698 0.224931
2.93 0.119473 0.220038
2.94 0.117296 0.215276
2.95 0.115167 0.210640
2.96 0.113083 0.206129
2.97 0.111044 0.201738
2.98 0.109048 0.197465
2.99 0.107094 0.193307
3.00 0.105182 0.189261
3.01 0.103309 0.185324
3.02 0.101475 0.181493
3.03 0.099678 0.177766
3.04 0.097919 0.174140
3.05 0.096195 0.170613
3.06 0.094506 0.167181
3.07 0.092851 0.163842
3.08 0.091229 0.160594
3.09 0.089639 0.157435
3.10 0.088080 0.154361
3.11 0.086552 0.151370
3.12 0.085053 0.148461
3.13 0.083582 0.145631
3.14 0.082140 0.142878
3.15 0.080724 0.140199
3.16 0.079336 0.137593
3.17 0.077972 0.135057
3.18 0.076634 0.132589
3.19 0.075320 0.130188
3.20 0.074030 0.127851
3.21 0.072763 0.125576
3.22 0.071518 0.123362
3.23 0.070296 0.121206
3.24 0.069094 0.119107
3.25 0.067913 0.117064
3.26 0.066753 0.115073
3.27 0.065612 0.113133
3.28 0.064490 0.111244
3.29 0.063387 0.109402
3.30 0.062302 0.107607
3.31 0.061234 0.105856
3.32 0.060184 0.104149
3.33 0.059151 0.102484
3.34 0.058135 0.100858
3.35 0.057134 0.099271
3.36 0.056149 0.097722
3.37 0.055179 0.096208
3.38 0.054225 0.094729
3.39 0.053285 0.093283
3.40 0.052359 0.091869
3.41 0.051447 0.090486
3.42 0.050549 0.089133
3.43 0.049665 0.087808
3.44 0.048793 0.086510
3.45 0.047934 0.085239
3.46 0.047088 0.083994
3.47 0.046254 0.082773
3.48 0.045433 0.081576
3.49 0.044623 0.080401
3.50 0.043824 0.079249
3.51 0.043038 0.078118
3.52 0.042262 0.077008
3.53 0.041497 0.075918
3.54 0.040744 0.074848
3.55 0.040000 0.073797
3.56 0.039268 0.072764
3.57 0.038545 0.071750
3.58 0.037833 0.070753
3.59 0.037130 0.069774
3.60 0.036437 0.068812
3.61 0.035754 0.067867
3.62 0.035080 0.066938
3.63 0.034415 0.066025
3.64 0.033759 0.065129
3.65 0.033112 0.064248
3.66 0.032474 0.063383
3.67 0.031844 0.062534
3.68 0.031223 0.061700
3.69 0.030610 0.060881
3.70 0.030006 0.060077
3.71 0.029409 0.059288
3.72 0.028820 0.058513
3.73 0.028238 0.057753
3.74 0.027665 0.057007
3.75 0.027098 0.056274
3.76 0.026539 0.055556
3.77 0.025987 0.054851
3.78 0.025442 0.054158
3.79 0.024904 0.053479
3.80 0.024372 0.052811
3.81 0.023848 0.052156
3.82 0.023329 0.051512
3.83 0.022817 0.050879
3.84 0.022312 0.050257
3.85 0.021812 0.049644
3.86 0.021319 0.049040
3.87 0.020831 0.048446
3.88 0.020350 0.047859
3.89 0.019874 0.047279
3.90 0.019404 0.046706
3.91 0.018940 0.046139
3.92 0.018481 0.045577
3.93 0.018028 0.045019
3.94 0.017581 0.044464
3.95 0.017139 0.043912
3.96 0.016703 0.043362
3.97 0.016272 0.042813
3.98 0.015847 0.042263
3.99 0.015427 0.041713
4.00 0.015012 0.041161
4.01 0.014603 0.040606
4.02 0.014200 0.040049
4.03 0.013803 0.039490
4.04 0.013410 0.038928
4.05 0.013024 0.038364
4.06 0.012643 0.037798
4.07 0.012268 0.037229
4.08 0.011899 0.036659
4.09 0.011535 0.036087
4.10 0.011177 0.035513
4.11 0.010825 0.034938
4.12 0.010478 0.034362
4.13 0.010137 0.033784
4.14 0.009802 0.033205
4.15 0.009473 0.032626
4.16 0.009150 0.032046
4.17 0.008832 0.031465
4.18 0.008521 0.030885
4.19 0.008215 0.030304
4.20 0.007914 0.029723
4.21 0.007620 0.029143
4.22 0.007332 0.028563
4.23 0.007049 0.027984
4.24 0.006772 0.027406
4.25 0.006501 0.026830
4.26 0.006235 0.026254
4.27 0.005976 0.025681
4.28 0.005722 0.025109
4.29 0.005473 0.024539
4.30 0.005231 0.023972
4.31 0.004994 0.023407
4.32 0.004763 0.022845
4.33 0.004537 0.022286
4.34 0.004317 0.021730
4.35 0.004103 0.021178
4.36 0.003893 0.020629
4.37 0.003690 0.020084
4.38 0.003492 0.019543
4.39 0.003299 0.019006
4.40 0.003112 0.018473
4.41 0.002930 0.017946
4.42 0.002753 0.017423
4.43 0.002581 0.016905
4.44 0.002415 0.016392
4.45 0.002253 0.015885
4.46 0.002097 0.015383
4.47 0.001946 0.014887
4.48 0.001799 0.014397
4.49 0.001658 0.013913
4.50 0.001521 0.013435
4.51 0.001389 0.012964
4.52 0.001262 0.012499
4.53 0.001139 0.012040
4.54 0.001021 0.011589
4.55 0.000907 0.011145
4.56 0.000798 0.010707
4.57 0.000693 0.010277
4.58 0.000592 0.009854
4.59 0.000496 0.009439
4.60 0.000403 0.009031
4.61 0.000315 0.008630
4.62 0.000231 0.008237
4.63 0.000150 0.007852
4.64 0.000074 0.007475
4.65 0.000001 0.007106
4.66 -0.000068 0.006744
4.67 -0.000134 0.006391
4.68 -0.000196 0.006046
4.69 -0.000255 0.005709
4.70 -0.000310 0.005380
4.71 -0.000363 0.005059
4.72 -0.000412 0.004746
4.73 -0.000458 0.004441
4.74 -0.000500 0.004145
4.75 -0.000540 0.003857
4.76 -0.000578 0.003577
4.77 -0.000612 0.003305
4.78 -0.000644 0.003041
4.79 -0.000673 0.002785
4.80 -0.000699 0.002538
4.81 -0.000724 0.002298
4.82 -0.000745 0.002067
4.83 -0.000765 0.001843
4.84 -0.000782 0.001628
4.85 -0.000798 0.001420
4.86 -0.000811 0.001220
4.87 -0.000822 0.001028
4.88 -0.000831 0.000843
4.89 -0.000839 0.000666
4.90 -0.000845 0.000497
4.91 -0.000849 0.000334
4.92 -0.000851 0.000179
4.93 -0.000852 0.000032
4.94 -0.000852 -0.000109
4.95 -0.000850 -0.000243
4.96 -0.000847 -0.000370
4.97 -0.000843 -0.000490
4.98 -0.000837 -0.000603
4.99 -0.000831 -0.000710
5.00 -0.000823 -0.000811
5.01 -0.000815 -0.000905
5.02 -0.000805 -0.000993
5.03 -0.000795 -0.001075
5.04 -0.000784 -0.001152
5.05 -0.000772 -0.001222
5.06 -0.000759 -0.001288
5.07 -0.000746 -0.001347
5.08 -0.000732 -0.001402
5.09 -0.000718 -0.001451
5.10 -0.000703 -0.001495
5.11 -0.000688 -0.001535
5.12 -0.000673 -0.001569
5.13 -0.000657 -0.001600
5.14 -0.000641 -0.001625
5.15 -0.000624 -0.001647
5.16 -0.000608 -0.001664
5.17 -0.000591 -0.001678
5.18 -0.000574 -0.001688
5.19 -0.000557 -0.001694
5.20 -0.000540 -0.001697
5.21 -0.000523 -0.001696
5.22 -0.000506 -0.001692
5.23 -0.000490 -0.001686
5.24 -0.000473 -0.001676
5.25 -0.000456 -0.001664
5.26 -0.000440 -0.001649
5.27 -0.000423 -0.001631
5.28 -0.000407 -0.001612
5.29 -0.000391 -0.001590
5.30 -0.000375 -0.001566
5.31 -0.000360 -0.001541
5.32 -0.000344 -0.001513
5.33 -0.000329 -0.001485
5.34 -0.000315 -0.001454
5.35 -0.000300 -0.001422
5.36 -0.000286 -0.001390
5.37 -0.000272 -0.001356
5.38 -0.000259 -0.001321
5.39 -0.000246 -0.001285
5.40 -0.000233 -0.001248
5.41 -0.000221 -0.001211
5.42 -0.000209 -0.001174
5.43 -0.000198 -0.001136
5.44 -0.000186 -0.001098
5.45 -0.000176 -0.001059
5.46 -0.000165 -0.001021
5.47 -0.000155 -0.000982
5.48 -0.000146 -0.000943
5.49 -0.000136 -0.000905
5.50 -0.000127 -0.000867
5.51 -0.000119 -0.000829
5.52 -0.000111 -0.000792
5.53 -0.000103 -0.000755
5.54 -0.000096 -0.000719
5.55 -0.000089 -0.000683
5.56 -0.000082 -0.000648
5.57 -0.000076 -0.000614
5.58 -0.000070 -0.000580
5.59 -0.000064 -0.000547
5.60 -0.000059 -0.000515
5.61 -0.000054 -0.000484
5.62 -0.000049 -0.000454
5.63 -0.000045 -0.000425
5.64 -0.000041 -0.000397
5.65 -0.000037 -0.000370
5.66 -0.000033 -0.000344
5.67 -0.000030 -0.000319
5.68 -0.000027 -0.000295
5.69 -0.000024 -0.000272
5.70 -0.000021 -0.000250
5.71 -0.000019 -0.000229
5.72 -0.000017 -0.000209
5.73 -0.000015 -0.000190
5.74 -0.000013 -0.000173
5.75 -0.000011 -0.000156
5.76 -0.000010 -0.000141
5.77 -0.000009 -0.000126
5.78 -0.000007 -0.000113
5.79 -0.000006 -0.000100
5.80 -0.000005 -0.000089
5.81 -0.000005 -0.000078
5.82 -0.000004 -0.000068
5.83 -0.000003 -0.000059
5.84 -0.000003 -0.000051
5.85 -0.000002 -0.000044
5.86 -0.000002 -0.000038
5.87 -0.000001 -0.000032
5.88 -0.000001 -0.000027
5.89 -0.000001 -0.000022
5.90 -0.000001 -0.000018
5.91 -0.000001 -0.000015
5.92 -0.000000 -0.000012
5.93 -0.000000 -0.000010
5.94 -0.000000 -0.000008
5.95 -0.000000 -0.000006
5.96 -0.000000 -0.000004
5.97 -0.000000 -0.000003
5.98 -0.000000 -0.000002
5.99 -0.000000 -0.000001
6.00 0.000000 -0.000000
